File: data/PEG_PLA_micelle_D2O-SANS data.txt
# SANS data: PEG5k-PLA3k micelle in D2O
# Columns: q (A^-1), I(q) (cm^-1), Error
0.0006    200.5    2.0
0.0009    160.2    1.6
0.0011    128.7    1.3
0.0014    102.4    1.0
0.0018    81.6     0.82
0.0022    65.0     0.65
0.0028    48.3     0.48
0.0035    36.2     0.36
0.0042    27.5     0.28
0.0050    21.0     0.21
0.0060    14.8     0.15
0.0070    10.5     0.11
0.0085    7.2      0.07
0.0100   5.0      0.05
0.0120   3.3      0.03
0.0150   2.0      0.02
0.0180   1.3      0.01
0.0220   0.85     0.009
0.0280   0.52     0.005
0.0350   0.32     0.003
0.0400   0.21     0.002